#PIXIE Baseline Mission Sensitivity for Spectral Distortions
#Noise curves are for integrated sensitivity with:
#     Total time in distortion mode within clean sky =  7.7 months
#     Clean sky fraction f_sky = 0.7
# 
#Center Freq   Sensitivity  
#  (GHz)        (Jy/sr)
  28.8         1.37E+01
  38.4         1.10E+01
  48.0         9.22E+00
  57.6         2.33E+00
  76.8         1.87E+00
  96.1         1.62E+00
 115.3         1.50E+00
 134.5         1.53E+00
 153.7         1.42E+00
 172.9         1.41E+00
 192.1         1.46E+00
 211.3         1.61E+00
 230.5         1.96E+00
 249.8         2.26E+00
 269.0         2.56E+00
 288.2         2.69E+00
 307.4         2.63E+00
 326.6         2.60E+00
 345.8         2.31E+00
 365.0         2.29E+00
 384.2         2.14E+00
 403.4         2.06E+00
 422.7         1.98E+00
 441.9         1.96E+00
 461.1         2.11E+00
 480.3         2.17E+00
 499.5         2.46E+00
 518.7         2.50E+00
 537.9         2.58E+00
 557.1         2.59E+00
 576.4         2.54E+00
 595.6         2.48E+00
 614.8         2.46E+00
 634.0         2.40E+00
 653.2         2.36E+00
 672.4         2.32E+00
 691.6         2.33E+00
 710.8         2.42E+00
 730.1         2.57E+00
 749.3         2.75E+00
 768.5         2.90E+00
 787.7         2.98E+00
 806.9         3.01E+00
 826.1         2.99E+00
 845.3         2.95E+00
 864.5         2.95E+00
 883.7         2.90E+00
 903.0         2.88E+00
 922.2         2.89E+00
 941.4         2.92E+00
 960.6         2.97E+00
 979.8         3.05E+00
 999.0         3.16E+00
1018.2         3.29E+00
1037.4         3.43E+00
1056.7         3.57E+00
1075.9         3.69E+00
1095.1         3.79E+00
1114.3         3.85E+00
1133.5         3.87E+00
1152.7         3.87E+00
1171.9         3.85E+00
1191.1         3.83E+00
1210.3         3.84E+00
1229.6         3.87E+00
1248.8         3.94E+00
1268.0         4.05E+00
1287.2         4.20E+00
1306.4         4.36E+00
1325.6         4.54E+00
1344.8         4.66E+00
1364.0         4.81E+00
1383.3         4.92E+00
1402.5         4.99E+00
1421.7         5.02E+00
1440.9         5.02E+00
1460.1         5.03E+00
1479.3         5.05E+00
1498.5         5.10E+00
1517.7         5.19E+00
1536.9         5.32E+00
1556.2         5.49E+00
1575.4         5.69E+00
1594.6         5.85E+00
1613.8         6.07E+00
1633.0         6.27E+00
1652.2         6.43E+00
1671.4         6.54E+00
1690.6         6.62E+00
1709.9         6.66E+00
1729.1         6.69E+00
1748.3         6.73E+00
1767.5         6.80E+00
1786.7         6.91E+00
1805.9         7.07E+00
1825.1         7.28E+00
1844.3         7.48E+00
1863.6         7.74E+00
1882.8         8.02E+00
1902.0         8.28E+00
1921.2         8.51E+00
1940.4         8.69E+00
1959.6         8.81E+00
1978.8         8.90E+00
1998.0         8.97E+00
2017.2         9.04E+00
2036.5         9.14E+00
2055.7         9.28E+00
2074.9         9.47E+00
2094.1         9.71E+00
2113.3         1.00E+01
2132.5         1.03E+01
2151.7         1.07E+01
2170.9         1.10E+01
2190.2         1.13E+01
2209.4         1.16E+01
2228.6         1.18E+01
2247.8         1.20E+01
2267.0         1.21E+01
2286.2         1.22E+01
2305.4         1.23E+01
2324.6         1.26E+01
2343.8         1.28E+01
2363.1         1.31E+01
2382.3         1.34E+01
2401.5         1.39E+01
2420.7         1.43E+01
2439.9         1.48E+01
2459.1         1.52E+01
2478.3         1.56E+01
2497.5         1.59E+01
2516.8         1.61E+01
2536.0         1.63E+01
2555.2         1.65E+01
2574.4         1.68E+01
2593.6         1.70E+01
2612.8         1.73E+01
2632.0         1.77E+01
2651.2         1.81E+01
2670.4         1.87E+01
2689.7         1.93E+01
2708.9         1.99E+01
2728.1         2.05E+01
2747.3         2.10E+01
2766.5         2.14E+01
2785.7         2.18E+01
2804.9         2.22E+01
2824.1         2.25E+01
2843.4         2.27E+01
2862.6         2.30E+01
2881.8         2.34E+01
2901.0         2.39E+01
2920.2         2.45E+01
2939.4         2.52E+01
2958.6         2.60E+01
2977.8         2.68E+01
2997.1         2.76E+01
3016.3         2.83E+01
3035.5         2.89E+01
3054.7         2.95E+01
3073.9         3.00E+01
3093.1         3.05E+01
3112.3         3.08E+01
3131.5         3.13E+01
3150.7         3.18E+01
3170.0         3.24E+01
3189.2         3.31E+01
3208.4         3.40E+01
3227.6         3.50E+01
3246.8         3.61E+01
3266.0         3.71E+01
3285.2         3.82E+01
3304.4         3.91E+01
3323.7         3.99E+01
3342.9         4.06E+01
3362.1         4.13E+01
3381.3         4.18E+01
3400.5         4.24E+01
3419.7         4.31E+01
3438.9         4.39E+01
3458.1         4.48E+01
3477.3         4.60E+01
3496.6         4.73E+01
3515.8         4.87E+01
3535.0         4.99E+01
3554.2         5.14E+01
3573.4         5.27E+01
3592.6         5.39E+01
3611.8         5.50E+01
3631.0         5.59E+01
3650.3         5.67E+01
3669.5         5.75E+01
3688.7         5.84E+01
3707.9         5.94E+01
3727.1         6.07E+01
3746.3         6.21E+01
3765.5         6.38E+01
3784.7         6.54E+01
3803.9         6.73E+01
3823.2         6.92E+01
3842.4         7.11E+01
3861.6         7.28E+01
3880.8         7.43E+01
3900.0         7.56E+01
3919.2         7.67E+01
3938.4         7.78E+01
3957.6         7.90E+01
3976.9         8.04E+01
3996.1         8.20E+01
4015.3         8.39E+01
4034.5         8.59E+01
4053.7         8.82E+01
4072.9         9.07E+01
4092.1         9.33E+01
4111.3         9.58E+01
4130.6         9.81E+01
4149.8         1.00E+02
4169.0         1.02E+02
4188.2         1.04E+02
4207.4         1.05E+02
4226.6         1.07E+02
4245.8         1.09E+02
4265.0         1.11E+02
4284.2         1.13E+02
4303.5         1.16E+02
4322.7         1.19E+02
4341.9         1.22E+02
4361.1         1.26E+02
4380.3         1.29E+02
4399.5         1.32E+02
4418.7         1.35E+02
4437.9         1.38E+02
4457.2         1.40E+02
4476.4         1.42E+02
4495.6         1.44E+02
4514.8         1.47E+02
4534.0         1.50E+02
4553.2         1.53E+02
4572.4         1.56E+02
4591.6         1.60E+02
4610.8         1.64E+02
4630.1         1.69E+02
4649.3         1.73E+02
4668.5         1.78E+02
4687.7         1.82E+02
4706.9         1.85E+02
4726.1         1.89E+02
4745.3         1.92E+02
4764.5         1.95E+02
4783.8         1.98E+02
4803.0         2.02E+02
4822.2         2.05E+02
4841.4         2.10E+02
4860.6         2.15E+02
4879.8         2.20E+02
4899.0         2.26E+02
4918.2         2.32E+02
4937.4         2.38E+02
4956.7         2.44E+02
4975.9         2.49E+02
4995.1         2.54E+02
5014.3         2.58E+02
5033.5         2.63E+02
5052.7         2.67E+02
5071.9         2.71E+02
5091.1         2.76E+02
5110.4         2.82E+02
5129.6         2.88E+02
5148.8         2.95E+02
5168.0         3.03E+02
5187.2         3.11E+02
5206.4         3.19E+02
5225.6         3.27E+02
5244.8         3.34E+02
5264.1         3.40E+02
5283.3         3.46E+02
5302.5         3.52E+02
5321.7         3.58E+02
5340.9         3.63E+02
5360.1         3.70E+02
5379.3         3.77E+02
5398.5         3.85E+02
5417.7         3.95E+02
5437.0         4.05E+02
5456.2         4.15E+02
5475.4         4.26E+02
5494.6         4.36E+02
5513.8         4.46E+02
5533.0         4.55E+02
5552.2         4.63E+02
5571.4         4.71E+02
5590.7         4.78E+02
5609.9         4.86E+02
5629.1         4.94E+02
5648.3         5.04E+02
5667.5         5.14E+02
5686.7         5.26E+02
5705.9         5.39E+02
5725.1         5.53E+02
5744.3         5.65E+02
5763.6         5.79E+02
5782.8         5.93E+02
5802.0         6.05E+02
5821.2         6.17E+02
5840.4         6.27E+02
5859.6         6.37E+02
5878.8         6.47E+02
5898.0         6.58E+02
5917.3         6.70E+02
5936.5         6.83E+02
5955.7         6.98E+02
5974.9         7.14E+02
5994.1         7.65E+02
